#oghma_csv {"title":"Photons absorbed - position @ 782.00 nm","type":"zxy-d","x_mul":1.00e+03,"y_mul":1.00e+09,"z_mul":1.00e+03,"x_offset":1.612450e-03,"z_offset":1.612450e-03,"x_label":"x-position","y_label":"y-position","z_label":"z-position","data_label":"Photons absorbed","x_units":"mm","y_units":"nm","z_units":"mm","rgb":"640065","data_units":"m^{-3} m^{-1}","x_len":1,"y_len":200,"z_len":1,"cols":"yd"}*
#y-position (nm) , Photons absorbed (m^{-3} m^{-1}) 
8.500000e-10 3.606210e+36
2.550000e-09 3.614216e+36
4.250000e-09 3.620361e+36
5.950000e-09 3.624631e+36
7.650000e-09 3.627012e+36
9.350000e-09 3.627497e+36
1.105000e-08 3.626080e+36
1.275000e-08 3.622760e+36
1.445000e-08 3.617537e+36
1.615000e-08 3.610418e+36
1.785000e-08 3.601412e+36
1.955000e-08 3.590533e+36
2.125000e-08 3.577795e+36
2.295000e-08 3.563219e+36
2.465000e-08 3.546829e+36
2.635000e-08 3.528651e+36
2.805000e-08 3.508715e+36
2.975000e-08 3.487054e+36
3.145000e-08 3.463707e+36
3.315000e-08 3.438711e+36
3.485000e-08 3.412112e+36
3.655000e-08 3.383954e+36
3.825000e-08 3.354286e+36
3.995000e-08 3.323162e+36
4.165000e-08 3.290635e+36
4.335000e-08 3.256763e+36
4.505000e-08 3.221606e+36
4.675000e-08 3.185226e+36
4.845000e-08 3.147687e+36
5.015000e-08 3.109058e+36
5.185000e-08 3.069406e+36
5.355000e-08 3.028803e+36
5.525000e-08 2.987321e+36
5.695000e-08 2.945036e+36
5.865000e-08 2.902021e+36
6.035000e-08 2.858355e+36
6.205000e-08 2.814117e+36
6.375000e-08 2.769386e+36
6.545000e-08 2.724242e+36
6.715000e-08 2.678767e+36
6.885000e-08 2.633044e+36
7.055000e-08 2.587153e+36
7.225000e-08 2.541179e+36
7.395000e-08 2.495203e+36
7.565000e-08 2.449310e+36
7.735000e-08 2.403581e+36
7.905000e-08 2.358100e+36
8.075000e-08 2.312948e+36
8.245000e-08 2.268206e+36
8.415000e-08 2.223956e+36
8.585000e-08 2.180276e+36
8.755000e-08 2.137247e+36
8.925000e-08 2.094944e+36
9.095000e-08 2.053444e+36
9.265000e-08 2.012821e+36
9.435000e-08 1.973149e+36
9.605000e-08 1.934498e+36
9.775000e-08 1.896938e+36
9.945000e-08 1.860535e+36
1.011500e-07 3.623769e+34
1.028500e-07 3.555101e+34
1.045500e-07 3.488247e+34
1.062500e-07 3.423368e+34
1.079500e-07 3.360619e+34
1.096500e-07 3.300152e+34
1.113500e-07 3.242111e+34
1.130500e-07 3.186637e+34
1.147500e-07 3.133862e+34
1.164500e-07 3.083913e+34
1.181500e-07 3.036911e+34
1.198500e-07 2.992969e+34
1.215500e-07 2.952190e+34
1.232500e-07 2.914675e+34
1.249500e-07 2.880513e+34
1.266500e-07 2.849785e+34
1.283500e-07 2.822566e+34
1.300500e-07 5.362840e+37
1.317500e-07 5.320799e+37
1.334500e-07 5.282704e+37
1.351500e-07 5.248125e+37
1.368500e-07 5.216626e+37
1.385500e-07 5.187781e+37
1.402500e-07 5.161164e+37
1.419500e-07 5.136357e+37
1.436500e-07 5.112947e+37
1.453500e-07 5.090530e+37
1.470500e-07 5.068710e+37
1.487500e-07 5.047103e+37
1.504500e-07 5.025336e+37
1.521500e-07 5.003048e+37
1.538500e-07 4.979892e+37
1.555500e-07 4.955538e+37
1.572500e-07 4.929669e+37
1.589500e-07 4.901985e+37
1.606500e-07 4.872205e+37
1.623500e-07 4.840066e+37
1.640500e-07 4.805325e+37
1.657500e-07 4.767757e+37
1.674500e-07 4.727158e+37
1.691500e-07 4.683348e+37
1.708500e-07 4.636164e+37
1.725500e-07 4.585469e+37
1.742500e-07 4.531144e+37
1.759500e-07 4.473098e+37
1.776500e-07 4.411259e+37
1.793500e-07 4.345578e+37
1.810500e-07 4.276029e+37
1.827500e-07 4.202610e+37
1.844500e-07 4.125341e+37
1.861500e-07 4.044263e+37
1.878500e-07 3.959440e+37
1.895500e-07 3.870959e+37
1.912500e-07 3.778925e+37
1.929500e-07 3.683467e+37
1.946500e-07 3.584731e+37
1.963500e-07 3.482884e+37
1.980500e-07 3.378111e+37
1.997500e-07 3.270614e+37
2.014500e-07 3.160614e+37
2.031500e-07 3.048345e+37
2.048500e-07 2.934057e+37
2.065500e-07 2.818014e+37
2.082500e-07 2.700493e+37
2.099500e-07 2.581782e+37
2.116500e-07 2.462178e+37
2.133500e-07 2.341990e+37
2.150500e-07 2.221531e+37
2.167500e-07 2.101124e+37
2.184500e-07 1.981096e+37
2.201500e-07 1.861777e+37
2.218500e-07 1.743501e+37
2.235500e-07 1.626600e+37
2.252500e-07 1.511412e+37
2.269500e-07 1.398267e+37
2.286500e-07 1.287497e+37
2.303500e-07 1.520730e+37
2.320500e-07 1.381831e+37
2.337500e-07 1.245537e+37
2.354500e-07 1.112677e+37
2.371500e-07 9.840628e+36
2.388500e-07 8.604834e+36
2.405500e-07 2.093702e+36
2.422500e-07 1.819464e+36
2.439500e-07 1.581146e+36
2.456500e-07 1.374043e+36
2.473500e-07 1.194068e+36
2.490500e-07 1.037666e+36
2.507500e-07 9.017495e+35
2.524500e-07 7.836361e+35
2.541500e-07 6.809934e+35
2.558500e-07 5.917952e+35
2.575500e-07 5.142803e+35
2.592500e-07 4.469186e+35
2.609500e-07 3.883800e+35
2.626500e-07 3.375090e+35
2.643500e-07 2.933013e+35
2.660500e-07 2.548839e+35
2.677500e-07 2.214986e+35
2.694500e-07 1.924861e+35
2.711500e-07 1.672738e+35
2.728500e-07 1.453639e+35
2.745500e-07 1.263237e+35
2.762500e-07 1.097775e+35
2.779500e-07 9.539859e+34
2.796500e-07 8.290305e+34
2.813500e-07 7.204420e+34
2.830500e-07 6.260766e+34
2.847500e-07 5.440716e+34
2.864500e-07 4.728077e+34
2.881500e-07 4.108781e+34
2.898500e-07 3.570602e+34
2.915500e-07 3.102916e+34
2.932500e-07 2.696488e+34
2.949500e-07 2.343295e+34
2.966500e-07 2.036364e+34
2.983500e-07 1.769636e+34
3.000500e-07 1.537845e+34
3.017500e-07 1.336414e+34
3.034500e-07 1.161367e+34
3.051500e-07 1.009248e+34
3.068500e-07 8.770545e+33
3.085500e-07 7.621756e+33
3.102500e-07 6.623440e+33
3.119500e-07 5.755884e+33
3.136500e-07 5.001964e+33
3.153500e-07 4.346794e+33
3.170500e-07 3.777440e+33
3.187500e-07 3.282662e+33
3.204500e-07 2.852690e+33
3.221500e-07 2.479038e+33
3.238500e-07 2.154327e+33
3.255500e-07 1.872148e+33
3.272500e-07 1.626929e+33
3.289500e-07 1.413830e+33
3.306500e-07 1.228643e+33
3.323500e-07 1.067712e+33
3.340500e-07 9.278604e+32
3.357500e-07 8.063269e+32
3.374500e-07 7.007122e+32
3.391500e-07 6.089311e+32
